File: scratch/KRAMS/src/apps/scratch/axel/tensile_tests/pullout153.raw
"Prüfungstyp";"Manuell"
"Methodenname:";"C:\INSTRON\USER\TEMPLATE\Zugversuch Textilbeton.mtM"
"Name:";"Zugversuche Carbon"
"Prüfer";""
"Firma:";""
"Abteilung:";""
"Prüfdatum:";"01.01.97"
"Temperatur:";""
"Feuchtigkeit:";""
"Anmerkung 1:";""
"Anmerkung 2:";""
"Anmerkung 3:";""
"Geometrie:";"Rectangular"
"Probe";1
"Probenname:";"V19-Z-3-1"
"Breite:";100;"mm"
"Dicke:";10;"mm"
"Länge:";900;"mm"
"Durchmesser:";1.000000;"mm"
"Innendurchmesser:";0.500000;"mm"
"Außendurchm.:";1.000000;"mm"
"Wandstärke:";0.500000;"mm"
"Querschnitt:";1000;"mm*mm"
"Lineare Dichte:";1.000000;"den"
"Schlittengewicht:";9.806650;"N"
"Lade-Spannweite:";0.000000;"mm"
"Unterstütz.-Spannweite:";1.000000;"mm"
"Spannweitenverhältnis:";"2"
"Vorrichtungstyp:";"3-point"
"Kommentar:";""
"Eingefügt"
"Endbreite:";100;"mm"
"Enddicke:";10;"mm"
"Endlänge:";900;"mm"
"Enddurchmesser:";1.000000;"mm"
"Endinnendurchmesser:";0.500000;"mm"
"Endaußendurchmesser:";1.000000;"mm"
"Endwandstärke:";0.500000;"mm"
"Endquerschnitt:";1000;"mm*mm"
"Lineare Enddichte:";1.000000;"den"
"Zeit sec";"Verformung mm";"Dehnung 1 %";"Kraft N";"Spannung MPa";"Anz. der Zykl. ";"Zyklenzahl gesamt ";"Wiederholungswert ";"Dehnung [Trav.] %";"Tatsächliche dehnung %";"Zähigkeit gf/tex";"Tatsächliche spannung Pa"
0;0;-0,008726754;-24,68571;-0,02468571;0;0;0;0;0;-22655,18;-24685,71
1,5;0,005141897;-0,009230287;-19,46582;-0,01946582;0;0;0;0,0005713218;0,0005713202;-17864,65;-19465,93
3;0,01010442;-0,009368865;-17,06366;-0,01706366;0;0;0;0,001122714;0,001122707;-15660,08;-17063,85
4,5;0,01500716;-0,009174523;-14,05951;-0,01405951;0;0;0;0,001667463;0,001667449;-12903,04;-14059,74
6;0,02008927;-0,009340472;-10,31035;-0,01031035;0;0;0;0,002232141;0,002232116;-9462,269;-10310,58
7,5;0,02499201;-0,009132284;-8,55688;-0,00855688;0;0;0;0,00277689;0,002776851;-7853,03;-8557,117
9;0,03013391;-0,009296915;-5,41324;-0,00541324;0;0;0;0,003348212;0,003348156;-4967,972;-5413,421
10,5;0,03497685;-0,009186952;-4,654823;-0,004654823;0;0;0;0,003886317;0,003886241;-4271,939;-4655,004
12;0,04011875;-0,009269737;-1,568006;-0,001568006;0;0;0;0,004457639;0,004457539;-1439,029;-1568,076
13,5;0,0449617;-0,009242173;-0,8634262;-0,0008634262;0;0;0;0,004995744;0,00499562;-792,4048;-863,4694
15;0,05010359;-0,009307761;2,289023;0,002289023;0;0;0;0,005567066;0,005566911;2100,739;2289,151
16,5;0,05494654;-0,00922726;2,403794;0,002403794;0;0;0;0,006105172;0,006104985;2206,069;2403,941
18;0,06014823;-0,009424839;6,282994;0,006282994;0;0;0;0,006683137;0,006682913;5766,184;6283,414
19,5;0,06493139;-0,009266991;6,234639;0,006234638;0;0;0;0,007214599;0,007214339;5721,806;6235,088
21;0,07007328;-0,009363739;8,754602;0,008754602;0;0;0;0,007785921;0,007785617;8034,488;8755,283
22,5;0,07491623;-0,009319749;9,056431;0,009056431;0;0;0;0,008324025;0,008323678;8311,49;9057,185
24;0,08005813;-0,009392211;11,12798;0,01112798;0;0;0;0,008895348;0,008894952;10212,64;11128,97
25,5;0,08496087;-0,009329658;12,99236;0,01299236;0;0;0;0,009440097;0,009439651;11923,66;12993,58
27;0,09004297;-0,009294405;14,86725;0,01486725;0;0;0;0,01000477;0,01000427;13644,34;14868,74
28,5;0,09494571;-0,009291898;15,9738;0,0159738;0;0;0;0,01054952;0,01054897;14659,87;15975,48
30;0,1000278;-0,009264236;17,1196;0,0171196;0;0;0;0,0111142;0,01111358;15711,42;17121,5
31,5;0,1049904;-0,00927615;19,42201;0,01942201;0;0;0;0,01166559;0,01166491;17824,45;19424,28
33;0,1100127;-0,009269397;19,47188;0,01947188;0;0;0;0,01222363;0,01222288;17870,21;19474,26
34,5;0,115035;-0,009275898;21,48671;0,02148671;0;0;0;0,01278166;0,01278085;19719,31;21489,45
36;0,1199975;-0,009185125;21,53555;0,02153555;0;0;0;0,01333306;0,01333217;19764,14;21538,42
37,5;0,1250796;-0,00920795;23,65541;0,02365541;0;0;0;0,01389773;0,01389677;21709,62;23658,7
39;0,1299824;-0,00915113;23,27395;0,02327395;0;0;0;0,01444248;0,01444144;21359,54;23277,31
40,5;0,1350645;-0,009131774;24,20831;0,02420831;0;0;0;0,01500716;0,01500604;22217,05;24211,95
42;0,1399074;-0,00908084;24,7762;0,0247762;0;0;0;0,01554527;0,01554406;22738,22;24780,05
43,5;0,1450493;-0,009056072;25,8687;0,0258687;0;0;0;0,01611659;0,01611529;23740,86;25872,86
45;0,149952;-0,009067536;25,87726;0,02587726;0;0;0;0,01666134;0,01665995;23748,72;25881,57
46,5;0,1550342;-0,009005496;26,76117;0,02676117;0;0;0;0,01722602;0,01722453;24559,92;26765,78
48;0,1599369;-0,009075514;27,05928;0,02705928;0;0;0;0,01777076;0,01776919;24833,51;27064,09
49,5;0,1650788;-0,008958824;27,76258;0,02776258;0;0;0;0,01834209;0,01834041;25478,96;27767,68
51;0,1699217;-0,009113831;27,24922;0,02724922;0;0;0;0,01888019;0,01887841;25007,83;27254,37
52,5;0,1750636;-0,008944458;28,1785;0,0281785;0;0;0;0,01945151;0,01944962;25860,66;28183,98
54;0,1799066;-0,009067692;27,95527;0,02795527;0;0;0;0,01998962;0,01998762;25655,8;27960,86
55,5;0,1850485;-0,008845773;27,35519;0,02735518;0;0;0;0,02056094;0,02055883;25105,07;27360,81
57;0,1898914;-0,009027357;26,03647;0,02603647;0;0;0;0,02109905;0,02109682;23894,83;26041,96
58,5;0,1949735;-0,008961478;25,65946;0,02565946;0;0;0;0,02166373;0,02166138;23548,84;25665,02
60;0,1999361;-0,008974212;25,76944;0,02576944;0;0;0;0,02221512;0,02221265;23649,76;25775,16
61,5;0,2050182;-0,008809355;25,40961;0,02540961;0;0;0;0,0227798;0,0227772;23319,54;25415,4
63;0,2099807;-0,009027565;24,82876;0,02482876;0;0;0;0,02333119;0,02332847;22786,46;24834,55
64,5;0,215003;-0,008875134;24,60788;0,02460788;0;0;0;0,02388922;0,02388637;22583,75;24613,76
66;0,2200253;-0,009023857;24,77668;0,02477668;0;0;0;0,02444726;0,02444427;22738,67;24782,74
67,5;0,2249878;-0,008882112;24,69867;0,02469867;0;0;0;0,02499865;0,02499553;22667,07;24704,85
69;0,23007;-0,009032068;24,12266;0,02412266;0;0;0;0,02556333;0,02556006;22138,45;24128,83
70,5;0,2349727;-0,008909882;23,71977;0,02371977;0;0;0;0,02610808;0,02610467;21768,69;23725,96
72;0,2400548;-0,009052993;23,2255;0,0232255;0;0;0;0,02667276;0,0266692;21315,07;23231,69
73,5;0,4920675;-0,008973418;22,5495;0,0225495;0;0;0;0,05467416;0,05465922;20694,68;22561,83
75;0,9919674;-0,009147726;20,86949;0,02086949;0;0;0;0,1102186;0,1101579;19152,86;20892,49
76,5;1,491927;-0,009041894;19,37179;0,01937179;0;0;0;0,1657697;0,1656324;17778,36;19403,91
78;1,991827;-0,009219699;17,35702;0,01735702;0;0;0;0,2213141;0,2210696;15929,31;17395,43
79,5;2,491847;-0,009087368;16,89363;0,01689363;0;0;0;0,2768718;0,2764893;15504,04;16940,4
81;2,991926;-0,009243152;17,22218;0,01722218;0;0;0;0,3324362;0,3318849;15805,56;17279,43
82,5;3,491826;-0,009179196;16,60521;0,01660521;0;0;0;0,3879806;0,3872299;15239,34;16669,63
84;3,991845;-0,009315974;15,42711;0,01542711;0;0;0;0,4435384;0,4425576;14158,15;15495,53
85,5;4,491925;-0,009206284;17,3393;0,0173393;0;0;0;0,4991027;0,4978614;15913,05;17425,84
87;4,991825;-0,009308449;17,42989;0,01742989;0;0;0;0,5546472;0,5531147;15996,19;17526,57
88,5;5,491724;-0,009272303;16,46122;0,01646122;0;0;0;0,6101916;0,6083375;15107,2;16561,66
90;5,991864;-0,009347341;16,95446;0,01695446;0;0;0;0,6657627;0,6635562;15559,87;17067,34
91,5;6,491883;-0,009212677;17,85398;0,01785398;0;0;0;0,7213203;0,7187313;16385,4;17982,77
93;6,991843;-0,0093592;17,08778;0,01708778;0;0;0;0,7768714;0,7738693;15682,22;17220,53
94,5;7,491803;-0,009250257;15,6472;0,0156472;0;0;0;0,8324225;0,828977;14360,14;15777,46
96;7,991942;-0,009414039;15,93518;0,01593518;0;0;0;0,8879936;0,8840741;14624,43;16076,69
97,5;8,491782;-0,009243874;14,97977;0,01497977;0;0;0;0,9435313;0,9391078;13747,6;15121,11
99;8,991801;-0,009367375;14,953;0,014953;0;0;0;0,999089;0,9941311;13723,04;15102,39
100,5;9,491821;-0,009257401;15,71827;0,01571827;0;0;0;1,054647;1,049124;14425,36;15884,04
102;9,99196;-0,009395543;16,94845;0,01694844;0;0;0;1,110218;1,1041;15554,34;17136,61
103,5;10,49186;-0,009206953;17,247;0,017247;0;0;0;1,165762;1,15902;15828,34;17448,05
105;10,99182;-0,009327459;14,79492;0,01479492;0;0;0;1,221313;1,213916;13577,95;14975,61
106,5;11,4919;-0,009212855;17,513;0,017513;0;0;0;1,276878;1,268794;16072,46;17736,62
108;11,99186;-0,00939734;17,36637;0,01736637;0;0;0;1,332429;1,32363;15937,89;17597,76
109,5;12,49176;-0,009180191;14,4139;0,0144139;0;0;0;1,387973;1,378429;13228,28;14613,96
111;12,99184;-0,009353691;16,32819;0,01632819;0;0;0;1,443538;1,433218;14985,11;16563,9
112,5;13,49192;-0,009140116;16,49338;0,01649337;0;0;0;1,499102;1,487976;15136,71;16740,63
114;13,99182;-0,00933345;15,8582;0,0158582;0;0;0;1,554646;1,542686;14553,77;16104,74
115,5;14,49178;-0,009148145;13,99544;0,01399544;0;0;0;1,610197;1,597371;12844,24;14220,79
117;14,99186;-0,009356101;13,35761;0,01335762;0;0;0;1,665762;1,65204;12258,88;13580,12
118,5;15,49194;-0,008712292;11,36697;0,01136697;0;0;0;1,721326;1,706679;10431,97;11562,63
120;15,99184;-0,009311262;13,54923;0,01354923;0;0;0;1,776871;1,761269;12434,73;13789,98
121,5;16,4918;-0,008779455;8,865457;0,008865457;0;0;0;1,832422;1,815835;8136,225;9027,909
123;16,99182;-0,009315813;8,686767;0,008686767;0;0;0;1,88798;1,870378;7972,233;8850,771
124,5;17,49177;-0,008971777;8,924824;0,008924824;0;0;0;1,943531;1,924885;8190,709;9098,281
126;17,99179;-0,009361883;7,483803;0,007483803;0;0;0;1,999088;1,979369;6868,22;7633,411
127,5;18,49193;-0,009095045;7,593925;0,007593925;0;0;0;2,054659;2,033836;6969,284;7749,954
129;18,99195;-0,009302653;8,253526;0,008253526;0;0;0;2,110217;2,08826;7574,629;8427,693
130,5;19,49185;-0,009272074;7,394973;0,007394973;0;0;0;2,165761;2,142642;6786,696;7555,13
132;19,99187;-0,009316273;7,100093;0,007100093;0;0;0;2,221319;2,197007;6516,072;7257,808
133,5;20,49177;-0,009230435;6,839277;0,006839277;0;0;0;2,276863;2,25133;6276,709;6994,998
135;20,99179;-0,009347918;7,123438;0,007123438;0;0;0;2,332421;2,305636;6537,497;7289,587
136,5;21,49181;-0,009308884;7,579291;0,007579291;0;0;0;2,387979;2,359913;6955,853;7760,283
136,606;21,52721;-0,007932044;7,624025;0,007624025;0;0;0;2,391912;2,363754;6996,908;7806,385