File: scratch/KRAMS/src/apps/scratch/axel/tensile_tests/pullout02.raw
"Prüfungstyp";"Manuell"
"Methodenname:";"C:\INSTRON\USER\TEMPLATE\Zugversuch Textilbeton.mtM"
"Name:";"Zugversuche Carbon"
"Prüfer";""
"Firma:";""
"Abteilung:";""
"Prüfdatum:";"01.01.97"
"Temperatur:";""
"Feuchtigkeit:";""
"Anmerkung 1:";""
"Anmerkung 2:";""
"Anmerkung 3:";""
"Geometrie:";"Rectangular"
"Probe";1
"Probenname:";"V19-Z-3-1"
"Breite:";100;"mm"
"Dicke:";10;"mm"
"Länge:";900;"mm"
"Durchmesser:";1.000000;"mm"
"Innendurchmesser:";0.500000;"mm"
"Außendurchm.:";1.000000;"mm"
"Wandstärke:";0.500000;"mm"
"Querschnitt:";1000;"mm*mm"
"Lineare Dichte:";1.000000;"den"
"Schlittengewicht:";9.806650;"N"
"Lade-Spannweite:";0.000000;"mm"
"Unterstütz.-Spannweite:";1.000000;"mm"
"Spannweitenverhältnis:";"2"
"Vorrichtungstyp:";"3-point"
"Kommentar:";""
"Eingefügt"
"Endbreite:";100;"mm"
"Enddicke:";10;"mm"
"Endlänge:";900;"mm"
"Enddurchmesser:";1.000000;"mm"
"Endinnendurchmesser:";0.500000;"mm"
"Endaußendurchmesser:";1.000000;"mm"
"Endwandstärke:";0.500000;"mm"
"Endquerschnitt:";1000;"mm*mm"
"Lineare Enddichte:";1.000000;"den"
"Zeit sec";"Verformung mm";"Dehnung 1 %";"Kraft N";"Spannung MPa";"Anz. der Zykl. ";"Zyklenzahl gesamt ";"Wiederholungswert ";"Dehnung [Trav.] %";"Tatsächliche dehnung %";"Zähigkeit gf/tex";"Tatsächliche spannung Pa"
0;0;-0,008054383;-44,83726;-0,04483726;0;0;0;0;0;-41149,15;-44837,26
2;0,006696423;-0,008488692;-37,41436;-0,03741436;0;0;0;0,0007440471;0,0007440443;-34336,82;-37414,64
4;0,01327327;-0,008617355;-32,20274;-0,03220274;0;0;0;0,001474808;0,001474797;-29553,89;-32203,22
6;0,0199099;-0,008713106;-28,32281;-0,02832281;0;0;0;0,002212211;0,002212187;-25993,1;-28323,43
8;0,0267259;-0,008623558;-23,15093;-0,02315093;0;0;0;0,002969545;0,002969501;-21246,64;-23151,62
10;0,03324296;-0,008863262;-19,95389;-0,0199539;0;0;0;0,003693662;0,003693593;-18312,58;-19954,63
12;0,03993938;-0,008727813;-15,75593;-0,01575593;0;0;0;0,004437709;0,00443761;-14459,92;-15756,63
14;0,04669559;-0,008991291;-13,30855;-0,01330855;0;0;0;0,005188399;0,005188264;-12213,85;-13309,24
16;0,05321265;-0,008887913;-10,45994;-0,01045994;0;0;0;0,005912516;0,005912342;-9599,55;-10460,55
18;0,06002865;-0,008964358;-6,492688;-0,006492688;0;0;0;0,00666985;0,006669627;-5958,629;-6493,121
20;0,06660549;-0,009148554;-4,229087;-0,004229087;0;0;0;0,00740061;0,007400336;-3881,221;-4229,4
22;0,07324213;-0,008918066;-1,417768;-0,001417768;0;0;0;0,008138014;0,008137683;-1301,149;-1417,883
24;0,07999834;-0,009253816;0,5187489;0,0005187489;0;0;0;0,008888705;0,00888831;476,0789;518,795
26;0,08663497;-0,00898653;3,450956;0,003450956;0;0;0;0,009626108;0,009625645;3167,096;3451,288
28;0,09321181;-0,009332062;5,194883;0,005194883;0;0;0;0,01035687;0,01035633;4767,576;5195,421
30;0,1000876;-0,009202646;8,537377;0,008537377;0;0;0;0,01112085;0,01112023;7835,132;8538,327
32;0,1066047;-0,00925866;9,902341;0,009902341;0;0;0;0,01184496;0,01184426;9087,82;9903,514
34;0,1133011;-0,009341378;11,75756;0,01175756;0;0;0;0,01258901;0,01258822;10790,44;11759,04
36;0,1200573;-0,009140061;14,45573;0,01445573;0;0;0;0,0133397;0,01333881;13266,67;14457,66
38;0,1265146;-0,009448015;14,54749;0,01454749;0;0;0;0,01405717;0,01405618;13350,88;14549,54
40;0,1333306;-0,009148974;17,40609;0,01740609;0;0;0;0,01481451;0,01481341;15974,35;17408,67
42;0,1399672;-0,009415228;18,8755;0,0188755;0;0;0;0,01555191;0,0155507;17322,89;18878,43
44;0,1464843;-0,009132597;20,11463;0,02011463;0;0;0;0,01627603;0,0162747;18460,09;20117,9
46;0,15336;-0,009453429;22,34456;0,02234456;0;0;0;0,01704;0,01703855;20506,6;22348,37
48;0,1599967;-0,009145284;22,55467;0,02255467;0;0;0;0,01777741;0,01777583;20699,43;22558,68
50;0,1665735;-0,009489938;23,8171;0,0238171;0;0;0;0,01850817;0,01850646;21858,01;23821,51
52;0,1733895;-0,009163929;26,16327;0,02616327;0;0;0;0,0192655;0,01926365;24011,2;26168,31
54;0,1799664;-0,009390422;25,87387;0,02587387;0;0;0;0,01999626;0,01999426;23745,6;25879,04
56;0,186603;-0,009112566;27,01144;0,02701144;0;0;0;0,02073367;0,02073152;24789,61;27017,04
58;0,1933592;-0,00935178;27,60952;0,02760952;0;0;0;0,02148436;0,02148205;25338,49;27615,46
60;0,1998763;-0,009224176;27,4762;0,0274762;0;0;0;0,02220847;0,02220601;25216,13;27482,3
62;0,2066923;-0,00926851;27,52764;0,02752764;0;0;0;0,02296581;0,02296317;25263,35;27533,96
64;0,2133289;-0,009386703;27,79849;0,02779849;0;0;0;0,02370321;0,0237004;25511,92;27805,08
66;0,2199058;-0,009175192;27,32913;0,02732913;0;0;0;0,02443397;0,02443099;25081,16;27335,81
68;0,2267218;-0,00943888;29,20241;0,02920241;0;0;0;0,02519131;0,02518813;26800,36;29209,77
70;0,2332986;-0,009295229;28,05798;0,02805799;0;0;0;0,02592207;0,02591871;25750,06;28065,26
72;0,2398754;-0,009215798;28,06626;0,02806626;0;0;0;0,02665283;0,02664927;25757,65;28073,74
74;0,2466914;-0,009436765;28,48496;0,02848496;0;0;0;0,02741016;0,0274064;26141,92;28492,77
76;0,2533281;-0,00940076;27,29683;0,02729683;0;0;0;0,02814756;0,0281436;25051,52;27304,51
78;0,2598451;-0,009264066;27,56528;0,02756528;0;0;0;0,02887168;0,02886751;25297,89;27573,24
80;0,2667807;-0,009470597;28,57061;0,02857061;0;0;0;0,0296423;0,02963791;26220,52;28579,08
82;0,273238;-0,009373642;27,38737;0,02738737;0;0;0;0,03035977;0,03035517;25134,61;27395,69
84;0,2799344;-0,009276168;26,8375;0,0268375;0;0;0;0,03110382;0,03109899;24629,97;26845,85
86;0,2866906;-0,009500706;27,849;0,027849;0;0;0;0,03185451;0,03184944;25558,27;27857,87
88;0,2932077;-0,009461725;27,44645;0,02744645;0;0;0;0,03257863;0,03257333;25188,83;27455,39
90;0,3000237;-0,009396599;27,56048;0,02756048;0;0;0;0,03333597;0,03333041;25293,48;27569,67
92;0,3066005;-0,009483392;27,64809;0,02764809;0;0;0;0,03406672;0,03406092;25373,88;27657,51
94;0,3132371;-0,009340468;26,99431;0,02699431;0;0;0;0,03480412;0,03479807;24773,88;27003,71
96;0,3199934;-0,009401961;28,09851;0,02809851;0;0;0;0,03555482;0,0355485;25787,25;28108,5
98;0,3266898;-0,00943272;27,66674;0,02766674;0;0;0;0,03629886;0,03629227;25391;27676,78
100;0,3332068;-0,009532102;26,49505;0,02649505;0;0;0;0,03702298;0,03701613;24315,69;26504,86
102;0,3400228;-0,009294606;28,31826;0,02831826;0;0;0;0,03778031;0,03777318;25988,93;28328,96
104;0,9557948;-0,009322618;27,80529;0,02780529;0;0;0;0,1061994;0,1061431;25518,16;27834,82
106;1,622507;-0,009247924;21,10303;0,02110303;0;0;0;0,1802786;0,1801163;19367,19;21141,07
108;2,2891;-0,009171584;18,24536;0,01824536;0;0;0;0,2543445;0,2540216;16744,58;18291,77
110;2,955873;-0,00927223;16,4406;0,0164406;0;0;0;0,3284303;0,3278922;15088,27;16494,59
112;3,622406;-0,009313695;15,19417;0,01519417;0;0;0;0,4024896;0,4016817;13944,37;15255,33
114;4,289179;-0,009258866;13,20113;0,01320113;0;0;0;0,4765754;0,4754434;12115,26;13264,04
116;4,955831;-0,009318784;13,08827;0,01308827;0;0;0;0,5506479;0,5491374;12011,69;13160,34
118;5,622484;-0,009255463;12,09923;0,01209923;0;0;0;0,6247205;0,6227772;11104,01;12174,82
120;6,289017;-0,009384437;11,7143;0,0117143;0;0;0;0,6987797;0,6963496;10750,73;11796,16
122;6,95573;-0,009083232;11,19825;0,01119825;0;0;0;0,7728589;0,7698877;10277,13;11284,79
124;7,622323;-0,009277873;8,879487;0,008879487;0;0;0;0,8469248;0,8433585;8149,101;8954,69
126;8,289095;-0,00941748;9,229574;0,009229574;0;0;0;0,9210106;0,9167951;8470,392;9314,579
128;8,955748;-0,008727145;9,493131;0,009493131;0;0;0;0,9950832;0,9901648;8712,27;9587,596
130;9,62252;-0,009263512;10,79868;0,01079868;0;0;0;1,069169;1,063494;9910,429;10914,13
132;10,28911;-0,009298175;10,4227;0,0104227;0;0;0;1,143235;1,136749;9565,377;10541,86
134;10,95577;-0,008609461;9,592093;0,009592093;0;0;0;1,217307;1,209958;8803,092;9708,858
136;11,62242;-0,009490519;10,27993;0,01027993;0;0;0;1,29138;1,283113;9434,354;10412,69
138;12,28907;-0,009115179;8,78537;0,008785371;0;0;0;1,365452;1,356214;8062,726;8905,33
140;12,95584;-0,008670802;8,03826;0,00803826;0;0;0;1,439538;1,429275;7377,069;8153,974
142;13,6225;-0,00922301;8,531896;0,008531895;0;0;0;1,513611;1,50227;7830,101;8661,035
144;14,28927;-0,00916274;7,885607;0,007885607;0;0;0;1,587697;1,575225;7236,973;8010,807
146;14,95586;-0,009304856;8,246902;0,008246902;0;0;0;1,661763;1,648106;7568,55;8383,946
148;15,62252;-0,009305744;7,99984;0,007999839;0;0;0;1,735835;1,720942;7341,81;8138,704
150;16,28923;-0,009102536;8,534882;0,008534881;0;0;0;1,809914;1,79373;7832,841;8689,356
152;16,95588;-0,009187459;8,3188;0,0083188;0;0;0;1,883987;1,86646;7634,533;8475,525
154;17,62241;-0,009309852;6,749304;0,006749304;0;0;0;1,958046;1,939123;6194,137;6881,459
156;18,28913;-0,009108034;7,787036;0,007787036;0;0;0;2,032125;2,011753;7146,51;7945,278
158;18,95572;-0,009154245;7,828834;0,007828834;0;0;0;2,106191;2,084318;7184,87;7993,724
160;19,62243;-0,009227649;7,275879;0,007275879;0;0;0;2,18027;2,156842;6677,398;7434,513
162;20,28921;-0,009175809;7,231586;0,007231586;0;0;0;2,254356;2,229321;6636,749;7394,612
164;20,95586;-0,009327852;8,247735;0,008247735;0;0;0;2,328429;2,301734;7569,314;8439,777
166;21,62245;-0,009210876;7,758111;0,007758111;0;0;0;2,402494;2,374089;7119,965;7944,5
168;22,28916;-0,009304955;7,253659;0,007253659;0;0;0;2,476574;2,446404;6657,006;7433,301
170;22,9557;-0,009334698;8,301278;0,008301278;0;0;0;2,550633;2,518647;7618,453;8513,013
172;23,62235;-0,009347817;7,214015;0,007214015;0;0;0;2,624706;2,590851;6620,624;7403,362
172,724;23,86372;-0,008664704;7,667665;0,007667665;0;0;0;2,651524;2,616981;7036,958;7870,975