File: scratch/src/apps/scratch/axel/tensile_tests/axelmultipletest.raw
"Prüfungstyp";"Manuell"
"Methodenname:";"C:\INSTRON\USER\TEMPLATE\Zugversuch Textilbeton.mtM"
"Name:";"Zugversuche Carbon"
"Prüfer";""
"Firma:";""
"Abteilung:";""
"Prüfdatum:";"01.01.97"
"Temperatur:";""
"Feuchtigkeit:";""
"Anmerkung 1:";""
"Anmerkung 2:";""
"Anmerkung 3:";""
"Geometrie:";"Rectangular"
"Probe";1
"Probenname:";"V19-Z-3-1"
"Breite:";100;"mm"
"Dicke:";10;"mm"
"Länge:";900;"mm"
"Durchmesser:";1.000000;"mm"
"Innendurchmesser:";0.500000;"mm"
"Außendurchm.:";1.000000;"mm"
"Wandstärke:";0.500000;"mm"
"Querschnitt:";1000;"mm*mm"
"Lineare Dichte:";1.000000;"den"
"Schlittengewicht:";9.806650;"N"
"Lade-Spannweite:";0.000000;"mm"
"Unterstütz.-Spannweite:";1.000000;"mm"
"Spannweitenverhältnis:";"2"
"Vorrichtungstyp:";"3-point"
"Kommentar:";""
"Eingefügt"
"Endbreite:";100;"mm"
"Enddicke:";10;"mm"
"Endlänge:";900;"mm"
"Enddurchmesser:";1.000000;"mm"
"Endinnendurchmesser:";0.500000;"mm"
"Endaußendurchmesser:";1.000000;"mm"
"Endwandstärke:";0.500000;"mm"
"Endquerschnitt:";1000;"mm*mm"
"Lineare Enddichte:";1.000000;"den"
"Zeit sec";"Verformung mm";"Dehnung 1 %";"Kraft N";"Spannung MPa";"Anz. der Zykl. ";"Zyklenzahl gesamt ";"Wiederholungswert ";"Dehnung [Trav.] %";"Tatsächliche dehnung %";"Korrigierte Position mm";"Zähigkeit gf/tex";"Tatsächliche spannung Pa"
0;0;-0,008269069;-563,4008;-0,5634008;0;0;0;0;0;0;-517058;-563400,8
5,5;0,01829558;-0,008752356;-189,05;-0,18905;0;0;0;0,002032843;0,002032822;0,01829558;-173499,6;-189053,9
11;0,03659117;-0,009001603;53,30699;0,05330699;0;0;0;0,004065685;0,004065603;0,03659117;48922,2;53309,16
16,5;0,05506612;-0,009151369;283,2078;0,2832078;0;0;0;0,006118458;0,006118271;0,05506612;259912,4;283225,1
22;0,07330192;-0,009047636;496,8073;0,4968073;0;0;0;0,008144658;0,008144326;0,07330192;455942,2;496847,8
27,5;0,0915975;-0,009182497;721,6796;0,7216796;0;0;0;0,0101775;0,01017698;0,0915975;662317,6;721753,1
33;0,1099529;-0,009023956;922,324;0,9223241;0;0;0;0,01221699;0,01221624;0,1099529;846457,9;922436,7
38,5;0,128368;-0,008971628;1108,786;1,108786;0;0;0;0,01426311;0,0142621;0,128368;1017583;1108944
44;0,1467234;-0,008741757;1284,131;1,284131;0;0;0;0,0163026;0,01630127;0,1467234;1178504;1284340
49,5;0,1649592;-0,008953095;1443,782;1,443782;0;0;0;0,0183288;0,01832712;0,1649592;1325023;1444047
55;0,1832548;-0,008336519;1586,286;1,586286;0;0;0;0,02036164;0,02035957;0,1832548;1455805;1586609
60,5;0,2017298;-0,008876316;1723,422;1,723422;0;0;0;0,02241442;0,02241191;0,2017298;1581661;1723808
66;0,2200851;-0,008573287;1843,502;1,843502;0;0;0;0,0244539;0,02445091;0,2200851;1691864;1843953
71,5;0,2383209;-0,008594517;1952,381;1,952381;0;0;0;0,0264801;0,0264766;0,2383209;1791787;1952897
77;0,2565567;-0,008472759;2043,096;2,043096;0;0;0;0,0285063;0,02850224;0,2565567;1875040;2043678
82,5;0,2750317;-0,008512883;2071,088;2,071088;0;0;0;0,03055907;0,0305544;0,2750317;1900730;2071721
88;0,293387;-0,008378406;2094,045;2,094045;0;0;0;0,03259856;0,03259325;0,293387;1921799;2094728
93,5;0,3116228;-0,008395728;2134,405;2,134405;0;0;0;0,03462476;0,03461876;0,3116228;1958839;2135144
99;0,3299184;-0,008632002;2218,646;2,218646;0;0;0;0,0366576;0,03665088;0,3299184;2036150;2219459
104,5;0,3483933;-0,008917277;2310,033;2,310033;0;0;0;0,03871037;0,03870288;0,3483933;2120021;2310927
110;0,3668085;-0,008922933;2394,693;2,394693;0;0;0;0,0407565;0,0407482;0,3668085;2197716;2395669
115,5;0,3849845;-0,009196091;2470,25;2,47025;0;0;0;0,04277606;0,04276691;0,3849845;2267059;2471307
121;0,4032801;-0,009106504;2534,707;2,534708;0;0;0;0,0448089;0,04479887;0,4032801;2326214;2535843
126,5;0,4216953;-0,009143994;2593,166;2,593166;0;0;0;0,04685503;0,04684406;0,4216953;2379865;2594381
132;0,4400507;-0,009028841;2640,073;2,640073;0;0;0;0,04889452;0,04888257;0,4400507;2422913;2641364
137,5;0,458406;-0,008918093;2663,687;2,663687;0;0;0;0,050934;0,05092104;0,458406;2444585;2665044
143;0,476582;-0,008510886;2635,891;2,635891;0;0;0;0,05295356;0,05293955;0,476582;2419075;2637287
148,5;0,4949972;-0,009144754;2517,135;2,517135;0;0;0;0,05499969;0,05498457;0,4949972;2310087;2518519
154;0,5134721;-0,008843988;2384,389;2,384389;0;0;0;0,05705246;0,05703619;0,5134721;2188260;2385749
159,5;0,531708;-0,008823738;2317,007;2,317007;0;0;0;0,05907866;0,05906122;0,531708;2126420;2318375
165;0,549884;-0,008130065;2408,274;2,408273;0;0;0;0,06109822;0,06107956;0,549884;2210180;2409745
170,5;0,5683588;-0,008983761;2686,478;2,686478;0;0;0;0,06315098;0,06313105;0,5683588;2465500;2688174
176;0,5867741;-0,008623633;2839,553;2,839553;0;0;0;0,06519712;0,06517588;0,5867741;2605984;2841404
181,5;0,6050098;-0,008577097;2925,429;2,925429;0;0;0;0,06722332;0,06720073;0,6050098;2684796;2927395
187;0,6232456;-0,00845977;3011,379;3,011379;0;0;0;0,06924952;0,06922555;0,6232456;2763677;3013464
192,5;0,641601;-0,008633572;3091,466;3,091466;0;0;0;0,071289;0,0712636;0,641601;2837176;3093670
198;0,660076;-0,008405796;3176,326;3,176326;0;0;0;0,07334178;0,07331489;0,660076;2915056;3178656
203,5;0,6783716;-0,008427494;3256,893;3,256893;0;0;0;0,07537462;0,07534623;0,6783716;2988996;3259348
209;0,6966074;-0,008311505;3334,773;3,334773;0;0;0;0,07740082;0,07737088;0,6966074;3060470;3337354
214,5;0,7149029;-0,008542846;3403,099;3,403099;0;0;0;0,07943366;0,07940213;0,7149029;3123176;3405802
220;0,7333779;-0,008269361;3475,984;3,475984;0;0;0;0,08148643;0,08145325;0,7333779;3190066;3478817
225,5;0,7517333;-0,008459362;3547,676;3,547676;0;0;0;0,08352592;0,08349106;0,7517333;3255861;3550639
231;0,7699093;-0,008357317;3617,613;3,617613;0;0;0;0,08554548;0,08550891;0,7699093;3320045;3620708
236,5;0,7882646;-0,008529766;3684,666;3,684666;0;0;0;0,08758496;0,08754662;0,7882646;3381582;3687893
242;0,8067396;-0,008429826;3752,723;3,752723;0;0;0;0,08963773;0,08959758;0,8067396;3444041;3756086
247,5;0,8250352;-0,008132434;3815,268;3,815268;0;0;0;0,09167057;0,09162858;0,8250352;3501441;3818765
253;0,843271;-0,008468065;3878,822;3,878822;0;0;0;0,09369678;0,09365291;0,843271;3559768;3882457
258,5;0,8615666;-0,008593164;3947,501;3,9475;0;0;0;0,09572962;0,09568383;0,8615666;3622797;3951279
264;0,8800416;-0,00842457;4018,991;4,018991;0;0;0;0,0977824;0,09773462;0,8800416;3688408;4022921
269,5;0,8983969;-0,008479758;4091,378;4,091378;0;0;0;0,09982188;0,09977209;0,8983969;3754840;4095462
275;0,9166925;-0,00831804;4166,7;4,1667;0;0;0;0,1018547;0,1018029;0,9166925;3823966;4170944
280,5;0,9349283;-0,00850877;4239,07;4,23907;0;0;0;0,1038809;0,103827;0,9349283;3890384;4243474
286;0,9534032;-0,008559452;4318,599;4,318599;0;0;0;0,1059337;0,1058776;0,9534032;3963371;4323174
291,5;0,9718184;-0,008828436;4400,68;4,40068;0;0;0;0,1079798;0,1079216;0,9718184;4038701;4405432
297;0,9899944;-0,008778724;4480,62;4,48062;0;0;0;0,1099994;0,1099389;0,9899944;4112065;4485549
302,5;1,00823;-0,008805742;4555,656;4,555655;0;0;0;0,1120256;0,1119629;1,00823;4180928;4560759
308;1,026705;-0,008744013;2728,321;2,728321;0;0;0;0,1140784;0,1140133;1,026705;2503902;2731434
313,5;1,04512;-0,008761046;2822,952;2,822952;0;0;0;0,1161245;0,1160571;1,04512;2590749;2826230
319;1,063356;-0,008685876;2775,522;2,775522;0;0;0;0,1181507;0,1180809;1,063356;2547221;2778801
324,5;1,081592;-0,008816738;2709,223;2,709223;0;0;0;0,1201769;0,1201047;1,081592;2486375;2712479
330;1,100067;-0,00852719;2665,295;2,665295;0;0;0;0,1222296;0,122155;1,100067;2446060;2668553
335,5;1,118422;-0,008753997;2619,009;2,619009;0;0;0;0,1242691;0,124192;1,118422;2403581;2622264
341;1,136718;-0,008558476;2596,536;2,596536;0;0;0;0,126302;0,1262223;1,136718;2382957;2599816
346,5;1,154954;-0,008562941;2569,669;2,569669;0;0;0;0,1283282;0,1282459;1,154954;2358300;2572967
352;1,173369;-0,008698773;2520,555;2,520555;0;0;0;0,1303743;0,1302894;1,173369;2313226;2523841
357,5;1,191724;-0,008639419;2508,082;2,508082;0;0;0;0,1324138;0,1323262;1,191724;2301779;2511403
363;1,21002;-0,008637471;2485,125;2,485125;0;0;0;0,1344466;0,1343563;1,21002;2280710;2488466
368,5;1,228256;-0,008852834;2457,399;2,457399;0;0;0;0,1364728;0,1363798;1,228256;2255265;2460753
374;1,246611;-0,008723961;2435,638;2,435638;0;0;0;0,1385123;0,1384165;1,246611;2235294;2439012
379,5;1,265086;-0,008852948;2418,72;2,41872;0;0;0;0,1405651;0,1404664;1,265086;2219767;2422120
385;1,283322;-0,008662323;2421,336;2,421336;0;0;0;0,1425913;0,1424897;1,283322;2222168;2424788
390,5;1,301557;-0,00873968;2423,08;2,42308;0;0;0;0,1446175;0,144513;1,301557;2223768;2426584
396;1,319973;-0,008455284;2419,165;2,419165;0;0;0;0,1466636;0,1465562;1,319973;2220176;2422713
401,5;1,338448;-0,008571352;2407,977;2,407977;0;0;0;0,1487164;0,1486059;1,338448;2209908;2411558
407;1,356624;-0,008514361;2389,813;2,389813;0;0;0;0,150736;0,1506225;1,356624;2193238;2393416
412,5;1,456352;-0,007879401;2335,991;2,335991;0;0;0;0,1618169;0,1616862;1,456352;2143844;2339771
418;1,639428;-0,008686935;1974,192;1,974193;0;0;0;0,1821586;0,1819929;1,639428;1811805;1977789
423,5;1,822862;-0,008784768;1697,502;1,697502;0;0;0;0,2025402;0,2023354;1,822862;1557873;1700940
429;2,006117;-0,008806487;1448,484;1,448484;0;0;0;0,2229019;0,2226538;2,006117;1329338;1451713
434,5;2,189431;-0,008950885;1245,656;1,245656;0;0;0;0,2432702;0,2429747;2,189431;1143195;1248687
440;2,372985;-0,008858342;1056,072;1,056072;0;0;0;0,263665;0,263318;2,372985;969203,9;1058856
445,5;2,55606;-0,009056058;840,4181;0,8404182;0;0;0;0,2840067;0,2836042;2,55606;771289,2;842805
451;2,739674;-0,009079266;672,5377;0,6725377;0;0;0;0,3044082;0,3039458;2,739674;617217,9;674585
456,5;2,92269;-0,009239844;542,8777;0,5428777;0;0;0;0,3247433;0,3242172;2,92269;498223;544640,6
462;3,106303;-0,00901063;473,8692;0,4738692;0;0;0;0,3451448;0,3445505;3,106303;434890,9;475504,8
467,5;3,289498;-0,008791773;417,2023;0,4172024;0;0;0;0,3654998;0,3648335;3,289498;382885,2;418727,2
473;3,472753;-0,008689209;341,8142;0,3418142;0;0;0;0,3858614;0,3851189;3,472753;313698,2;343133,2
478,5;3,656247;-0,00847183;253,618;0,253618;0;0;0;0,4062497;0,4054267;3,656247;232756,6;254648,3
484;3,839382;-0,008381784;208,5257;0,2085257;0;0;0;0,426598;0,4256907;3,839382;191373,3;209415,3
489,5;4,022936;-0,008728461;148,1235;0,1481235;0;0;0;0,4469929;0,4459969;4,022936;135939,5;148785,6
495;4,206011;-0,008696421;93,94545;0,09394545;0;0;0;0,4673346;0,466246;4,206011;86217,93;94384,49
500,5;4,389625;-0,008613592;62,27254;0,06227254;0;0;0;0,4877361;0,4865505;4,389625;57150,29;62576,27
506;4,5727;-0,008536879;45,81056;0,04581056;0;0;0;0,5080778;0,5067914;4,5727;42042,39;46043,31
511,5;4,756134;-0,008700431;37,39789;0,03739789;0;0;0;0,5284594;0,5270679;4,756134;34321,71;37595,53
517;4,939569;-0,008599093;28,70422;0,02870422;0;0;0;0,5488409;0,5473403;4,939569;26343,14;28861,76
522,5;5,122764;-0,008708853;22,74686;0,02274686;0;0;0;0,5691959;0,5675822;5,122764;20875,81;22876,34
522,626;5,127008;-0,008250684;20,0508;0,02005081;0;0;0;0,5696676;0,5680511;5,127008;18401,52;20165,03