File: scratch/src/apps/scratch/axel/tensile_tests/axelmulttiple.2tdM.raw
"Prüfungstyp";"Manuell"
"Methodenname:";"C:\INSTRON\USER\TEMPLATE\Zugversuch Textilbeton.mtM"
"Name:";"Zugversuche Carbon"
"Prüfer";""
"Firma:";""
"Abteilung:";""
"Prüfdatum:";"01.01.97"
"Temperatur:";""
"Feuchtigkeit:";""
"Anmerkung 1:";""
"Anmerkung 2:";""
"Anmerkung 3:";""
"Geometrie:";"Rectangular"
"Probe";1
"Probenname:";"V19-Z-3-1"
"Breite:";100;"mm"
"Dicke:";10;"mm"
"Länge:";900;"mm"
"Durchmesser:";1.000000;"mm"
"Innendurchmesser:";0.500000;"mm"
"Außendurchm.:";1.000000;"mm"
"Wandstärke:";0.500000;"mm"
"Querschnitt:";1000;"mm*mm"
"Lineare Dichte:";1.000000;"den"
"Schlittengewicht:";9.806650;"N"
"Lade-Spannweite:";0.000000;"mm"
"Unterstütz.-Spannweite:";1.000000;"mm"
"Spannweitenverhältnis:";"2"
"Vorrichtungstyp:";"3-point"
"Kommentar:";""
"Eingefügt"
"Endbreite:";100;"mm"
"Enddicke:";10;"mm"
"Endlänge:";900;"mm"
"Enddurchmesser:";1.000000;"mm"
"Endinnendurchmesser:";0.500000;"mm"
"Endaußendurchmesser:";1.000000;"mm"
"Endwandstärke:";0.500000;"mm"
"Endquerschnitt:";1000;"mm*mm"
"Lineare Enddichte:";1.000000;"den"
"Zeit sec";"Verformung mm";"Dehnung 1 %";"Kraft N";"Spannung MPa";"Anz. der Zykl. ";"Zyklenzahl gesamt ";"Wiederholungswert ";"Dehnung [Trav.] %";"Tatsächliche dehnung %";"Korrigierte Position mm";"Zähigkeit gf/tex";"Tatsächliche spannung Pa"
0;0;-0,007945212;8,369792;0,008369792;0;0;0;0;0;0;7681,332;8369,792
3,5;0,01171874;-0,008699715;258,4208;0,2584208;0;0;0;0,001302082;0,001302074;0,01171874;237164,3;258424,1
7;0,02343748;-0,008647741;589,546;0,589546;0;0;0;0,002604165;0,002604131;0,02343748;541052,6;589561,3
10,5;0,03503664;-0,008672792;827,3442;0,8273442;0;0;0;0,00389296;0,003892884;0,03503664;759290,7;827376,4
14;0,04657601;-0,008885535;1040,003;1,040003;0;0;0;0,005175113;0,005174979;0,04657601;954456,9;1040057
17,5;0,05829476;-0,008832944;1234,846;1,234846;0;0;0;0,006477195;0,006476985;0,05829476;1133273;1234926
21;0,0699537;-0,009075545;1320,808;1,320808;0;0;0;0,007772634;0,007772332;0,0699537;1212164;1320910
24,5;0,08173223;-0,009093772;1513,733;1,513733;0;0;0;0,009081359;0,009080947;0,08173223;1389220;1513870
28;0,09339118;-0,008913418;1659,599;1,659599;0;0;0;0,0103768;0,01037626;0,09339118;1523088;1659771
31,5;0,1051099;-0,009178284;1796,672;1,796672;0;0;0;0,01167888;0,0116782;0,1051099;1648886;1796882
35;0,1167689;-0,008965305;1927,418;1,927418;0;0;0;0,01297432;0,01297348;0,1167689;1768877;1927668
38,5;0,1284278;-0,009186483;2053,41;2,05341;0;0;0;0,01426976;0,01426874;0,1284278;1884506;2053703
42;0,1399672;-0,009021625;2181,699;2,181699;0;0;0;0,01555191;0,0155507;0,1399672;2002242;2182038
45,5;0,1515664;-0,009182951;2311,4;2,3114;0;0;0;0,01684071;0,01683929;0,1515664;2121275;2311789
49;0,1632851;-0,009176267;2430,847;2,430846;0;0;0;0,01814279;0,01814114;0,1632851;2230896;2431288
52,5;0,1749441;-0,00915584;2534,032;2,534032;0;0;0;0,01943823;0,01943634;0,1749441;2325594;2534525
56;0,1867226;-0,009121546;2642,675;2,642675;0;0;0;0,02074695;0,0207448;0,1867226;2425301;2643224
59,5;0,1984413;-0,009179563;2744,937;2,744937;0;0;0;0,02204903;0,0220466;0,1984413;2519152;2745543
63;0,2101003;-0,009054459;2830,983;2,830983;0;0;0;0,02334448;0,02334175;0,2101003;2598119;2831644
66,5;0,2217592;-0,009164174;2912,32;2,91232;0;0;0;0,02463991;0,02463688;0,2217592;2672766;2913038
70;0,2332986;-0,009034817;2970,731;2,970731;0;0;0;0,02592207;0,02591871;0,2332986;2726372;2971501
73,5;0,2448978;-0,009036241;3041,134;3,041134;0;0;0;0,02721086;0,02720716;0,2448978;2790984;3041961
77;0,2566165;-0,008838145;3115,895;3,115895;0;0;0;0,02851294;0,02850888;0,2566165;2859596;3116783
80,5;0,2682754;-0,008909;3174,03;3,17403;0;0;0;0,02980838;0,02980394;0,2682754;2912949;3174977
84;0,280054;-0,008465431;3209,721;3,209721;0;0;0;0,03111711;0,03111227;0,280054;2945704;3210720
87,5;0,2917129;-0,008426551;3223,807;3,223807;0;0;0;0,03241255;0,03240729;0,2917129;2958632;3224852
91;0,3034317;-0,008518714;3262,351;3,262352;0;0;0;0,03371463;0,03370895;0,3034317;2994006;3263451
94,5;0,3150906;-0,008832078;3288,916;3,288916;0;0;0;0,03501007;0,03500394;0,3150906;3018385;3290068
98;0,3267496;-0,008700973;3321,367;3,321367;0;0;0;0,03630551;0,03629892;0,3267496;3048167;3322573
101,5;0,338289;-0,009257169;3307,062;3,307062;0;0;0;0,03758766;0,0375806;0,338289;3035039;3308305
105;0,3498881;-0,009015132;3312,601;3,312601;0;0;0;0,03887646;0,0388689;0,3498881;3040122;3313889
108,5;0,3616069;-0,008808904;3321,336;3,321336;0;0;0;0,04017854;0,04017047;0,3616069;3048138;3322671
112;0,3733256;-0,008736065;3323,021;3,323021;0;0;0;0,04148062;0,04147202;0,3733256;3049684;3324399
115,5;0,3849845;-0,00847346;3329,638;3,329638;0;0;0;0,04277606;0,04276691;0,3849845;3055757;3331062
119;0,3967631;-0,008518521;3331,195;3,331195;0;0;0;0,04408478;0,04407507;0,3967631;3057186;3332664
122,5;0,4083622;-0,008398941;3341,611;3,341611;0;0;0;0,04537358;0,04536329;0,4083622;3066746;3343128
126;0,420081;-0,008832038;3335,214;3,335214;0;0;0;0,04667566;0,04666477;0,420081;3060875;3336771
129,5;0,4316801;-0,008647533;3335,44;3,33544;0;0;0;0,04796446;0,04795296;0,4316801;3061082;3337040
133;0,4432195;-0,009185386;3330,614;3,330614;0;0;0;0,04924661;0,04923449;0,4432195;3056653;3332255
136,5;0,4549383;-0,008203249;3332,027;3,332027;0;0;0;0,0505487;0,05053592;0,4549383;3057950;3333711
140;0,466657;-0,009159148;3353,443;3,353443;0;0;0;0,05185077;0,05183734;0,466657;3077605;3355182
143,5;0,4783159;-0,008984897;3358,25;3,35825;0;0;0;0,05314621;0,0531321;0,4783159;3082016;3360035
147;0,4900346;-0,00899889;3347,196;3,347196;0;0;0;0,0544483;0,05443348;0,4900346;3071871;3349019
150,5;0,5017534;-0,008760053;3360,779;3,360779;0;0;0;0,05575038;0,05573485;0,5017534;3084337;3362653
154;0,5134124;-0,008640471;3368,902;3,368902;0;0;0;0,05704582;0,05702955;0,5134124;3091792;3370824
157,5;0,5250713;-0,008475782;3370,68;3,37068;0;0;0;0,05834125;0,05832424;0,5250713;3093424;3372647
161;0,5366107;-0,008398558;3371,734;3,371734;0;0;0;0,05962341;0,05960564;0,5366107;3094391;3373744
164,5;0,5482098;-0,00857691;3346,485;3,346484;0;0;0;0,0609122;0,06089366;0,5482098;3071218;3348523
168;0,5599883;-0,008500502;3344,698;3,344697;0;0;0;0,06222093;0,06220158;0,5599883;3069578;3346779
171,5;0,5717071;-0,008310093;3350,74;3,35074;0;0;0;0,06352301;0,06350284;0,5717071;3075124;3352868
175;0,5833063;-0,00890036;3361,551;3,361551;0;0;0;0,06481181;0,06479081;0,5833063;3085045;3363729
178,5;0,595025;-0,008285239;3348,481;3,34848;0;0;0;0,06611389;0,06609205;0,595025;3073050;3350694
182;0,6067437;-0,008994418;3337,22;3,33722;0;0;0;0,06741597;0,06739325;0,6067437;3062716;3339470
185,5;0,6184027;-0,008066862;3317,53;3,31753;0;0;0;0,06871141;0,06868782;0,6184027;3044645;3319809
189;0,6300019;-0,009179819;3329,785;3,329785;0;0;0;0,07000021;0,06997572;0,6300019;3055892;3332116
192,5;0,6415412;-0,008786548;3316,189;3,316189;0;0;0;0,07128236;0,07125697;0,6415412;3043415;3318553
196;0,65326;-0,009272797;3295,29;3,29529;0;0;0;0,07258444;0,07255811;0,65326;3024234;3297682
199,5;0,6649787;-0,009309979;3235,305;3,235305;0;0;0;0,07388653;0,07385924;0,6649787;2969184;3237695
203;0,6766974;-0,008784673;3248,806;3,248806;0;0;0;0,07518861;0,07516035;0,6766974;2981574;3251249
206,5;0,6884162;-0,00928395;3253,761;3,253761;0;0;0;0,07649069;0,07646145;0,6884162;2986122;3256250
210;0,7001349;-0,008134023;3252,123;3,252123;0;0;0;0,07779277;0,07776253;0,7001349;2984618;3254652
213,5;0,7117341;-0,00829839;3246,322;3,246321;0;0;0;0,07908157;0,07905032;0,7117341;2979294;3248889
217;0,723393;-0,008562289;3242,847;3,242846;0;0;0;0,08037701;0,08034472;0,723393;2976105;3245453
220,5;0,7349324;-0,008793719;3234,522;3,234522;0;0;0;0,08165915;0,08162583;0,7349324;2968466;3237164
224;0,7465316;-0,008579717;3227,633;3,227633;0;0;0;0,08294795;0,08291357;0,7465316;2962143;3230310
227,5;0,7582503;-0,008839304;3212,159;3,212159;0;0;0;0,08425004;0,08421457;0,7582503;2947942;3214866
231;0,7700288;-0,009041404;3191,954;3,191953;0;0;0;0,08555876;0,08552218;0,7700288;2929398;3194685
234,5;0,7816878;-0,009014491;3179,167;3,179167;0;0;0;0,0868542;0,08681651;0,7816878;2917664;3181928
238;0,7934065;-0,009036083;3171,149;3,171149;0;0;0;0,08815628;0,08811745;0,7934065;2910305;3173944
241,5;0,8051253;-0,009183725;3159,774;3,159774;0;0;0;0,08945837;0,08941838;0,8051253;2899865;3162600
245;0,8167245;-0,009021627;3143,442;3,143442;0;0;0;0,09074716;0,09070601;0,8167245;2884877;3146295
248,5;0,8283236;-0,009241136;3117,627;3,117627;0;0;0;0,09203596;0,09199363;0,8283236;2861185;3120496
252;0,8399228;-0,008980777;3120,109;3,12011;0;0;0;0,09332476;0,09328124;0,8399228;2863464;3123021
255,5;0,8939127;-0,008885112;3108,681;3,108681;0;0;0;0,09932363;0,09927434;0,8939127;2852975;3111769
259;1,010442;-0,008668561;2992,397;2,992397;0;0;0;0,1122714;0,1122084;1,010442;2746256;2995757
262,5;1,127092;-0,008667507;2708,274;2,708275;0;0;0;0,1252324;0,1251541;1,127092;2485504;2711666
266;1,24398;-0,008464975;2417,723;2,417723;0;0;0;0,13822;0,1381246;1,24398;2218853;2421065
269,5;1,360809;-0,008560015;2194,007;2,194007;0;0;0;0,151201;0,1510868;1,360809;2013539;2197325
273;1,477279;-0,008052165;1985,426;1,985426;0;0;0;0,1641421;0,1640075;1,477279;1822114;1988685
276,5;1,593809;-0,008450521;1808,35;1,80835;0;0;0;0,1770898;0,1769332;1,593809;1659603;1811552
280;1,710458;-0,008496908;1653,717;1,653717;0;0;0;0,1900509;0,1898705;1,710458;1517690;1656860
283,5;1,827167;-0,008683871;1508,965;1,508965;0;0;0;0,2030185;0,2028127;1,827167;1384844;1512028
287;1,943996;-0,008613432;1372,153;1,372153;0;0;0;0,2159995;0,2157666;1,943996;1259286;1375117
290,5;2,060705;-0,008917644;1241,116;1,241116;0;0;0;0,2289672;0,2287055;2,060705;1139027;1243957
294;2,177234;-0,008737963;1122,19;1,12219;0;0;0;0,2419149;0,2416228;2,177234;1029883;1124904
297,5;2,293764;-0,008933131;995,8775;0,9958775;0;0;0;0,2548626;0,2545384;2,293764;913961,2;998415,6
301;2,410473;-0,008916268;866,1143;0,8661143;0;0;0;0,2678303;0,2674723;2,410473;794871,7;868434
304,5;2,527242;-0,008364771;760,303;0,760303;0;0;0;0,2808047;0,2804112;2,527242;697763,9;762437,9
308;2,644131;-0,009135172;677,3828;0,6773828;0;0;0;0,2937923;0,2933616;2,644131;621664,4;679372,9
311,5;2,76066;-0,009260963;602,7414;0,6027414;0;0;0;0,30674;0,3062705;2,76066;553162,6;604590,2
315;2,87713;-0,00919461;526,1319;0,5261319;0;0;0;0,3196811;0,3191712;2,87713;482854,7;527813,9
318,5;2,993779;-0,009063002;445,3475;0,4453475;0;0;0;0,3326421;0,3320901;2,993779;408715,3;446828,9
322;3,110548;-0,008828564;371,8444;0,3718444;0;0;0;0,3456165;0,3450206;3,110548;341258,2;373129,5
325,5;3,227377;-0,008783606;310,4098;0,3104098;0;0;0;0,3585974;0,357956;3,227377;284876,9;311522,9
329;3,344086;-0,008618318;259,471;0,259471;0;0;0;0,3715651;0,3708765;3,344086;238128,1;260435,1
332,5;3,460616;-0,008467722;216,9066;0,2169066;0;0;0;0,3845128;0,3837755;3,460616;199064,8;217740,6
336;3,577086;-0,00832446;185,4176;0,1854176;0;0;0;0,397454;0,3966662;3,577086;170166;186154,5
339,5;3,693795;-0,008486893;163,0941;0,1630941;0;0;0;0,4104216;0,4095817;3,693795;149678,8;163763,5
343;3,810564;-0,008538786;131,3818;0,1313818;0;0;0;0,423396;0,4225022;3,810564;120574,9;131938
346,5;3,927392;-0,008408861;108,1731;0,1081731;0;0;0;0,4363769;0,4354275;3,927392;99275,3;108645,2
347,5;3,960695;-0,008607583;101,4765;0,1014765;0;0;0;0,4400772;0,4391117;3,960695;93129,52;101923,1