File: scratch/src/apps/scratch/axel/tensile_tests/pullout01.raw
"Prüfungstyp";"Manuell"
"Methodenname:";"C:\INSTRON\USER\TEMPLATE\Zugversuch Textilbeton.mtM"
"Name:";"Zugversuche Carbon"
"Prüfer";""
"Firma:";""
"Abteilung:";""
"Prüfdatum:";"01.01.97"
"Temperatur:";""
"Feuchtigkeit:";""
"Anmerkung 1:";""
"Anmerkung 2:";""
"Anmerkung 3:";""
"Geometrie:";"Rectangular"
"Probe";1
"Probenname:";"V19-Z-3-1"
"Breite:";100;"mm"
"Dicke:";10;"mm"
"Länge:";900;"mm"
"Durchmesser:";1.000000;"mm"
"Innendurchmesser:";0.500000;"mm"
"Außendurchm.:";1.000000;"mm"
"Wandstärke:";0.500000;"mm"
"Querschnitt:";1000;"mm*mm"
"Lineare Dichte:";1.000000;"den"
"Schlittengewicht:";9.806650;"N"
"Lade-Spannweite:";0.000000;"mm"
"Unterstütz.-Spannweite:";1.000000;"mm"
"Spannweitenverhältnis:";"2"
"Vorrichtungstyp:";"3-point"
"Kommentar:";""
"Eingefügt"
"Endbreite:";100;"mm"
"Enddicke:";10;"mm"
"Endlänge:";900;"mm"
"Enddurchmesser:";1.000000;"mm"
"Endinnendurchmesser:";0.500000;"mm"
"Endaußendurchmesser:";1.000000;"mm"
"Endwandstärke:";0.500000;"mm"
"Endquerschnitt:";1000;"mm*mm"
"Lineare Enddichte:";1.000000;"den"
"Zeit sec";"Verformung mm";"Dehnung 1 %";"Kraft N";"Spannung MPa";"Anz. der Zykl. ";"Zyklenzahl gesamt ";"Wiederholungswert ";"Dehnung [Trav.] %";"Tatsächliche dehnung %";"Zähigkeit gf/tex";"Tatsächliche spannung Pa"
0;0;-0,008407922;-25,53968;-0,02553968;0;0;0;0;0;-23438,9;-25539,68
5,5;0,01835537;-0,008917976;-9,674014;-0,009674014;0;0;0;0,002039486;0,002039465;-8878,273;-9674,211
11;0,03671075;-0,009019616;-1,655923;-0,001655923;0;0;0;0,004078972;0,004078889;-1519,714;-1655,991
16,5;0,05500633;-0,008798264;3,71647;0,00371647;0;0;0;0,006111815;0,006111628;3410,771;3716,698
22;0,07324213;-0,009039046;6,974832;0,006974832;0;0;0;0,008138014;0,008137683;6401,114;6975,4
27,5;0,09171708;-0,008674886;9,805679;0,009805679;0;0;0;0,01019079;0,01019027;8999,109;9806,679
33;0,1100725;-0,009329126;11,29251;0,01129251;0;0;0;0,01223027;0,01222952;10363,64;11293,89
38,5;0,1283082;-0,00923861;12,28438;0,01228438;0;0;0;0,01425647;0,01425546;11273,93;12286,13
44;0,146544;-0,009344321;12,79667;0,01279667;0;0;0;0,01628267;0,01628135;11744,07;12798,75
49,5;0,1649592;-0,009069532;14,36367;0,01436367;0;0;0;0,0183288;0,01832712;13182,18;14366,3
55;0,1834342;-0,009188702;16,13197;0,01613197;0;0;0;0,02038157;0,0203795;14805,03;16135,25
60,5;0,2016102;-0,009048932;17,27492;0,01727493;0;0;0;0,02240113;0,02239862;15853,97;17278,79
66;0,2199058;-0,009242342;18,31638;0,01831638;0;0;0;0,02443397;0,02443099;16809,76;18320,85
71,5;0,2383209;-0,00901965;19,98195;0,01998195;0;0;0;0,0264801;0,0264766;18338,32;19987,24
77;0,2567361;-0,009087574;21,63699;0,02163699;0;0;0;0,02852623;0,02852216;19857,23;21643,17
82,5;0,2749121;-0,008792594;22,39453;0,02239453;0;0;0;0,03054579;0,03054112;20552,46;22401,37
88;0,2932674;-0,008054808;22,67071;0,02267071;0;0;0;0,03258527;0,03257996;20805,93;22678,1
93,5;0,3116228;-0,008548701;24,51722;0,02451722;0;0;0;0,03462476;0,03461876;22500,55;24525,71
99;0,330038;-0,008716584;25,20834;0,02520834;0;0;0;0,03667089;0,03666417;23134,82;25217,59
104,5;0,3483336;-0,008913268;25,38713;0,02538713;0;0;0;0,03870373;0,03869624;23298,9;25396,96
110;0,3665694;-0,009164015;25,85135;0,02585135;0;0;0;0,04072993;0,04072164;23724,94;25861,88
115,5;0,384865;-0,009437971;27,19865;0,02719865;0;0;0;0,04276277;0,04275363;24961,41;27210,28
121;0,4033997;-0,009504357;28,31875;0,02831875;0;0;0;0,04482219;0,04481215;25989,38;28331,44
126,5;0,4216355;-0,009221;28,39535;0,02839535;0;0;0;0,04684839;0,04683742;26059,68;28408,65
132;0,4398713;-0,009177367;24,48365;0,02448365;0;0;0;0,04887459;0,04886265;22469,74;24495,62
137,5;0,4582864;-0,008857184;24,75802;0,02475802;0;0;0;0,05092072;0,05090776;22721,54;24770,63
143;0,4767016;-0,008916765;26,39662;0,02639662;0;0;0;0,05296685;0,05295282;24225,36;26410,61
148,5;0,4949374;-0,008900983;25,92281;0,02592281;0;0;0;0,05499305;0,05497793;23790,52;25937,07
154;0,5132928;-0,008940775;26,34851;0,02634851;0;0;0;0,05703253;0,05701627;24181,21;26363,54
159,5;0,5315884;-0,008510957;26,14442;0,02614442;0;0;0;0,05906537;0,05904794;23993,9;26159,86
165;0,5500633;-0,008817114;26,83755;0,02683755;0;0;0;0,06111814;0,06109948;24630,02;26853,95
170,5;0,6341273;-0,008654153;27,24735;0,02724735;0;0;0;0,07045859;0,07043378;25006,11;27266,54
176;0,7256052;-0,008550404;26,80686;0,02680686;0;0;0;0,08062281;0,08059032;24601,85;26828,48
181,5;0,8172028;-0,008408155;26,24622;0,02624622;0;0;0;0,09080031;0,09075911;24087,33;26270,06
187;0,9088601;-0,008798371;25,97861;0,02597861;0;0;0;0,1009845;0,1009335;23841,72;26004,84
192,5;1,000757;-0,008539143;25,90827;0,02590827;0;0;0;0,1111952;0,1111334;23777,18;25937,08
198;1,092474;-0,008691049;26,0044;0,0260044;0;0;0;0,1213859;0,1213123;23865,39;26035,96
203,5;1,183832;-0,008491919;24,58805;0,02458804;0;0;0;0,1315369;0,1314505;22565,54;24620,39
209;1,275429;-0,00875419;23,90808;0,02390808;0;0;0;0,1417144;0,1416141;21941,51;23941,96
214,5;1,367206;-0,00857633;23,79581;0,02379581;0;0;0;0,1519118;0,1517965;21838,47;23831,96
220;1,459163;-0,008701056;24,80378;0,02480378;0;0;0;0,1621292;0,1619979;22763,54;24844
225,5;1,5507;-0,008545658;23,61604;0,02361604;0;0;0;0,1723;0,1721518;21673,5;23656,73
231;1,642178;-0,008717285;22,30966;0,02230966;0;0;0;0,1824643;0,182298;20474,57;22350,37
236,5;1,733776;-0,008675813;22,02159;0,02202159;0;0;0;0,1926417;0,1924564;20210,19;22064,01
242;1,825612;-0,008745578;22,49477;0,02249476;0;0;0;0,2028458;0,2026404;20644,45;22540,39
247,5;1,917569;-0,008596497;22,79581;0,02279581;0;0;0;0,2130632;0,2128365;20920,73;22844,38
253;2,008927;-0,008658517;21,92904;0,02192904;0;0;0;0,2232141;0,2229653;20125,25;21977,99
258,5;2,100405;-0,008595357;22,71496;0,02271496;0;0;0;0,2333783;0,2331064;20846,53;22767,97
264;2,192182;-0,008667724;22,19724;0,02219724;0;0;0;0,2435758;0,2432796;20371,4;22251,31
269,5;2,284078;-0,008559761;22,75553;0,02275553;0;0;0;0,2537864;0,253465;20883,77;22813,28
275;2,375795;-0,008590562;21,97108;0,02197108;0;0;0;0,2639772;0,2636294;20163,84;22029,08
280,5;2,467213;-0,008536944;21,37828;0,02137828;0;0;0;0,2741348;0,2737598;19619,8;21436,89
286;2,558751;-0,008607271;20,98669;0,02098669;0;0;0;0,2843057;0,2839023;19260,42;21046,36
291,5;2,650647;-0,008696105;22,49956;0,02249956;0;0;0;0,2945164;0,2940835;20648,85;22565,83
297;2,742484;-0,00900761;22,40589;0,02240589;0;0;0;0,3047205;0,3042571;20562,88;22474,16
302,5;2,834022;-0,008915151;20,86438;0,02086438;0;0;0;0,3148913;0,3143966;19148,18;20930,08
308;2,9255;-0,009221634;20,29102;0,02029102;0;0;0;0,3250555;0,3245284;18621,97;20356,98
313,5;3,017097;-0,009158523;20,47514;0,02047514;0;0;0;0,3352331;0,3346724;18790,95;20543,78
319;3,109113;-0,009302917;21,03603;0,02103603;0;0;0;0,345457;0,3448617;19305,7;21108,7
324,5;3,20083;-0,009198741;20,98562;0,02098561;0;0;0;0,3556478;0,3550169;19259,44;21060,25
330;3,292248;-0,009409155;20,32959;0,02032959;0;0;0;0,3658054;0,3651379;18657,37;20403,95
335,5;3,383726;-0,009378201;19,77536;0,01977536;0;0;0;0,3759696;0,3752646;18148,73;19849,71
341;3,475504;-0,009443599;19,93271;0,01993271;0;0;0;0,386167;0,3854233;18293,14;20009,69
346,5;3,56752;-0,009280003;20,48713;0,02048713;0;0;0;0,3963911;0,3956075;18801,96;20568,34
352;3,659117;-0,009409232;20,28099;0,02028099;0;0;0;0,4065686;0,4057443;18612,77;20363,44
357,5;3,750535;-0,009201869;18,10588;0,01810588;0;0;0;0,4167261;0,4158602;16616,57;18181,33
363;3,842132;-0,009430334;19,7782;0,0197782;0;0;0;0,4269036;0,425995;18151,34;19862,63
368,5;3,93391;-0,00924024;19,31593;0,01931593;0;0;0;0,4371011;0,4361485;17727,09;19400,36
374;4,025866;-0,009385449;20,14659;0,02014659;0;0;0;0,4473184;0,4463209;18489,43;20236,71
379,5;4,117344;-0,009205458;20,10259;0,02010259;0;0;0;0,4574826;0,4564393;18449,04;20194,56
385;4,208822;-0,009386651;19,77262;0,01977262;0;0;0;0,4676468;0,4665568;18146,21;19865,09
390,5;4,300479;-0,009213624;19,34564;0,01934564;0;0;0;0,477831;0,476693;17754,36;19438,08
396;4,392435;-0,00926347;20,63989;0,02063989;0;0;0;0,4880483;0,4868612;18942,14;20740,62
401,5;4,484092;-0,009059389;20,62271;0,0206227;0;0;0;0,4982325;0,4969954;18926,38;20725,45
407;4,575511;-0,009063846;19,01362;0,01901362;0;0;0;0,5083901;0,5071021;17449,64;19110,28
412,5;4,667167;-0,008766469;19,62232;0,01962232;0;0;0;0,5185741;0,5172342;18008,28;19724,07
418;4,758885;-0,008688358;19,04592;0,01904592;0;0;0;0,528765;0,5273719;17479,29;19146,63
423,5;4,850841;-0,008576561;20,22798;0,02022798;0;0;0;0,5389823;0,537535;18564,12;20337,01
429;4,942378;-0,008694867;18,32225;0,01832225;0;0;0;0,5491531;0,5476508;16815,15;18422,87
434,5;5,033737;-0,008603405;17,98396;0,01798396;0;0;0;0,5593041;0,5577458;16504,68;18084,54
440;5,125514;-0,008618485;15,85564;0,01585564;0;0;0;0,5695015;0,567886;14551,42;15945,93
445,5;5,21735;-0,008559571;15,75936;0,01575937;0;0;0;0,5797056;0,5780318;14463,07;15850,72
451;5,309127;-0,008513569;14,65766;0,01465766;0;0;0;0,5899031;0,5881699;13451,99;14744,13
456,5;5,400605;-0,008561024;14,53986;0,01453986;0;0;0;0,6000673;0,598274;13343,88;14627,11
462;5,492024;-0,00870924;13,76887;0,01376886;0;0;0;0,6102248;0,6083705;12636,3;13852,89
467,5;5,58392;-0,00862941;13,21635;0,01321635;0;0;0;0,6204356;0,6185188;12129,23;13298,35
473;5,675876;-0,008963823;13,98191;0,01398191;0;0;0;0,630653;0,6286726;12831,82;14070,09
478,5;5,767354;-0,008994502;13,29001;0,01329001;0;0;0;0,6408171;0,6387726;12196,83;13375,17
484;5,858892;-0,009289746;13,59536;0,01359536;0;0;0;0,650988;0,6488782;12477,07;13683,87
489,5;5,950429;-0,009418199;13,13559;0,0131356;0;0;0;0,6611588;0,6589827;12055,12;13222,44
495;6,779531;-0,009429391;12,7764;0,0127764;0;0;0;0,7532812;0,7504582;11725,48;12872,65
500,5;8,612676;-0,009119371;11,67456;0,01167456;0;0;0;0,956964;0,9524141;10714,26;11786,28
506;10,44612;-0,009002752;11,95529;0,01195529;0;0;0;1,16068;1,153996;10971,91;12094,06
511,5;12,27945;-0,008780223;11,59395;0,01159395;0;0;0;1,364383;1,355159;10640,28;11752,13
517;14,11283;-0,008813768;12,19638;0,01219638;0;0;0;1,568092;1,555925;11193,17;12387,63
522,5;15,94616;-0,008423773;11,42441;0,01142441;0;0;0;1,771795;1,756282;10484,69;11626,83
528;17,77954;-0,008688765;11,60237;0,01160237;0;0;0;1,975504;1,956245;10648,01;11831,57
533,5;19,61275;-0,008453423;9,800687;0,009800687;0;0;0;2,179194;2,155789;8994,527;10014,26
539;21,44619;-0,008911331;10,14025;0,01014025;0;0;0;2,38291;2,354962;9306,161;10381,88
544,5;23,2794;-0,008803623;7,982709;0,007982709;0;0;0;2,5866;2,553713;7326,088;8189,19
550;25,11278;-0,008735705;7,316599;0,007316599;0;0;0;2,790309;2,752089;6714,769;7520,755
554,26;26,53272;-0,008811359;7,693213;0,007693213;0;0;0;2,948081;2,90546;7060,405;7920,016