File: scratch/src/apps/scratch/axel/tensile_tests/pullout154.raw
"Prüfungstyp";"Manuell"
"Methodenname:";"C:\INSTRON\USER\TEMPLATE\Zugversuch Textilbeton.mtM"
"Name:";"Zugversuche Carbon"
"Prüfer";""
"Firma:";""
"Abteilung:";""
"Prüfdatum:";"01.01.97"
"Temperatur:";""
"Feuchtigkeit:";""
"Anmerkung 1:";""
"Anmerkung 2:";""
"Anmerkung 3:";""
"Geometrie:";"Rectangular"
"Probe";1
"Probenname:";"V19-Z-3-1"
"Breite:";100;"mm"
"Dicke:";10;"mm"
"Länge:";900;"mm"
"Durchmesser:";1.000000;"mm"
"Innendurchmesser:";0.500000;"mm"
"Außendurchm.:";1.000000;"mm"
"Wandstärke:";0.500000;"mm"
"Querschnitt:";1000;"mm*mm"
"Lineare Dichte:";1.000000;"den"
"Schlittengewicht:";9.806650;"N"
"Lade-Spannweite:";0.000000;"mm"
"Unterstütz.-Spannweite:";1.000000;"mm"
"Spannweitenverhältnis:";"2"
"Vorrichtungstyp:";"3-point"
"Kommentar:";""
"Eingefügt"
"Endbreite:";100;"mm"
"Enddicke:";10;"mm"
"Endlänge:";900;"mm"
"Enddurchmesser:";1.000000;"mm"
"Endinnendurchmesser:";0.500000;"mm"
"Endaußendurchmesser:";1.000000;"mm"
"Endwandstärke:";0.500000;"mm"
"Endquerschnitt:";1000;"mm*mm"
"Lineare Enddichte:";1.000000;"den"
"Zeit sec";"Verformung mm";"Dehnung 1 %";"Kraft N";"Spannung MPa";"Anz. der Zykl. ";"Zyklenzahl gesamt ";"Wiederholungswert ";"Dehnung [Trav.] %";"Tatsächliche dehnung %";"Zähigkeit gf/tex";"Tatsächliche spannung Pa"
0;0;-0,008646476;-7,745742;-0,007745742;0;0;0;0;0;-7108,613;-7745,742
2;0,006636634;-0,009280807;-3,370018;-0,003370018;0;0;0;0,0007374038;0,000737401;-3092,816;-3370,043
4;0,01321348;-0,00932381;0,6553742;0,0006553743;0;0;0;0,001468164;0,001468153;601,4662;655,3839
6;0,02002948;-0,009281727;3,023615;0,003023615;0;0;0;0,002225498;0,002225473;2774,906;3023,682
8;0,02660632;-0,009252101;5,167012;0,005167012;0;0;0;0,002956258;0,002956214;4741,998;5167,165
10;0,03324296;-0,009223256;6,330381;0,006330381;0;0;0;0,003693662;0,003693593;5809,673;6330,615
12;0,04005896;-0,009114568;8,928603;0,008928603;0;0;0;0,004450995;0,004450896;8194,177;8929
14;0,04651623;-0,009114601;8,352498;0,008352499;0;0;0;0,00516847;0,005168336;7665,46;8352,93
16;0,05333222;-0,009122104;10,67791;0,01067791;0;0;0;0,005925803;0,005925627;9799,598;10678,55
18;0,05996886;-0,009090084;11,13235;0,01113235;0;0;0;0,006663206;0,006662984;10216,65;11133,09
20;0,06654571;-0,009131635;12,80976;0,01280976;0;0;0;0,007393967;0,007393694;11756,09;12810,71
22;0,07336171;-0,009185537;14,3402;0,0143402;0;0;0;0,008151301;0,008150969;13160,64;14341,37
24;0,07993855;-0,00906335;14,99647;0,01499647;0;0;0;0,008882062;0,008881667;13762,93;14997,8
26;0,08651539;-0,009263619;15,50802;0,01550802;0;0;0;0,009612821;0,009612359;14232,4;15509,51
28;0,09339118;-0,009289581;16,51991;0,01651991;0;0;0;0,0103768;0,01037626;15161,06;16521,63
30;0,09990823;-0,009279189;16,97381;0,01697381;0;0;0;0,01110092;0,0111003;15577,62;16975,69
32;0,1066047;-0,009309198;17,97057;0,01797058;0;0;0;0,01184496;0,01184426;16492,4;17972,7
34;0,1134207;-0,009350506;18,53919;0,01853919;0;0;0;0,0126023;0,0126015;17014,24;18541,53
36;0,1198779;-0,009303133;18,85585;0,01885585;0;0;0;0,01331977;0,01331888;17304,86;18858,36
38;0,1266939;-0,009239806;20,54849;0,02054849;0;0;0;0,0140771;0,01407611;18858,26;20551,38
40;0,1333306;-0,009163063;21,35878;0,02135878;0;0;0;0,01481451;0,01481341;19601,91;21361,95
42;0,1398476;-0,009135614;20,40841;0,02040841;0;0;0;0,01553862;0,01553742;18729,71;20411,58
44;0,1466636;-0,009000071;21,60012;0,02160012;0;0;0;0,01629596;0,01629463;19823,39;21603,64
46;0,1533002;-0,008920356;22,44971;0,02244971;0;0;0;0,01703336;0,01703191;20603,1;22453,54
48;0,1598173;-0,008868892;23,06669;0,02306669;0;0;0;0,01775748;0,0177559;21169,33;23070,78
50;0,1666931;-0,008790999;23,91247;0,02391247;0;0;0;0,01852146;0,01851974;21945,54;23916,89
52;0,1733297;-0,008797612;23,66697;0,02366697;0;0;0;0,01925886;0,01925701;21720,23;23671,53
54;0,1799066;-0,008757756;23,82246;0,02382246;0;0;0;0,01998962;0,01998762;21862,93;23827,22
56;0,1867226;-0,008688316;25,08293;0,02508293;0;0;0;0,02074695;0,0207448;23019,72;25088,13
58;0,1932396;-0,008715309;24,5196;0,0245196;0;0;0;0,02147107;0,02146877;22502,73;24524,86
60;0,1999361;-0,008622544;25,26118;0,02526118;0;0;0;0,02221512;0,02221265;23183,31;25266,79
62;0,2066923;-0,008635554;25,68189;0,02568189;0;0;0;0,02296581;0,02296317;23569,42;25687,79
64;0,2132093;-0,008608275;26,26299;0,02626299;0;0;0;0,02368993;0,02368712;24102,71;26269,21
66;0,2200253;-0,008657274;26,41623;0,02641623;0;0;0;0,02444726;0,02444427;24243,35;26422,69
68;0,226662;-0,008668656;26,82842;0,02682842;0;0;0;0,02518466;0,02518149;24621,64;26835,18
70;0,233179;-0,008667614;26,1052;0,0261052;0;0;0;0,02590878;0,02590543;23957,9;26111,96
72;0,2400548;-0,008744383;27,46159;0,02746159;0;0;0;0,02667276;0,0266692;25202,73;27468,92
74;0,2466317;-0,008771673;25,20612;0,02520612;0;0;0;0,02740352;0,02739976;23132,78;25213,03
76;0,2531487;-0,008906674;24,92827;0,02492827;0;0;0;0,02812763;0,02812368;22877,79;24935,28
78;0,2600245;-0,00895628;26,15532;0,02615532;0;0;0;0,02889161;0,02888744;24003,9;26162,87
80;0,2666611;-0,008866818;25,66721;0,02566721;0;0;0;0,02962901;0,02962462;23555,94;25674,81
82;0,2731782;-0,009024105;25,20979;0,02520979;0;0;0;0,03035313;0,03034853;23136,15;25217,44
84;0,280054;-0,00904146;26,89841;0,02689841;0;0;0;0,03111711;0,03111227;24685,87;26906,78
86;0,286571;-0,009127036;26,46781;0,02646781;0;0;0;0,03184123;0,03183616;24290,69;26476,24
88;0,2932674;-0,00908927;26,05816;0,02605816;0;0;0;0,03258527;0,03257996;23914,74;26066,66
90;0,2999639;-0,009135773;26,31565;0,02631565;0;0;0;0,03332932;0,03332377;24151,05;26324,42
92;0,3065407;-0,009201075;26,35148;0,02635148;0;0;0;0,03406008;0,03405428;24183,92;26360,45
94;0,3132969;-0,009205383;26,96218;0,02696218;0;0;0;0,03481077;0,03480471;24744,4;26971,57
96;0,3199336;-0,009300608;25,91143;0,02591143;0;0;0;0,03554818;0,03554186;23780,08;25920,64
98;0,3265104;-0,00928165;26,88309;0,02688309;0;0;0;0,03627893;0,03627235;24671,81;26892,84
100;0,7320625;-0,009367366;28,42283;0,02842283;0;0;0;0,08134028;0,08130722;26084,9;28445,95
102;1,398536;-0,009293032;20,19747;0,02019747;0;0;0;0,1553929;0,1552723;18536,12;20228,85
104;2,065189;-0,009380091;17,06993;0,01706993;0;0;0;0,2294654;0,2292025;15665,84;17109,1
106;2,731961;-0,009330151;15,38713;0,01538713;0;0;0;0,3035512;0,3030914;14121,46;15433,84
108;3,398495;-0,009318772;13,09289;0,01309289;0;0;0;0,3776105;0,3768993;12015,93;13142,33
110;4,065267;-0,009356766;13,79287;0,01379287;0;0;0;0,4516963;0,4506792;12658,33;13855,17
112;4,73198;-0,009318182;11,37882;0,01137882;0;0;0;0,5257756;0,5243982;10442,85;11438,65
114;5,398572;-0,009243415;11,14341;0,01114341;0;0;0;0,5998414;0,5980495;10226,8;11210,25
116;6,065285;-0,009260511;11,07112;0,01107112;0;0;0;0,6739206;0,6716599;10160,46;11145,73
118;6,731878;-0,00913919;11,5995;0,0115995;0;0;0;0,7479865;0,7452029;10645,38;11686,27
120;7,398412;-0,009315393;10,02727;0,01002727;0;0;0;0,8220457;0,8186853;9202,473;10109,7
122;8,065065;-0,009091779;10,59804;0,01059804;0;0;0;0,8961183;0,892127;9726,293;10693,01
124;8,731837;-0,00928269;9,228377;0,009228378;0;0;0;0,9702041;0,9655278;8469,293;9317,911
126;9,398489;-0,008972637;10,17571;0,01017571;0;0;0;1,044276;1,038862;9338,705;10281,98
128;10,0652;-0,009219148;11,01694;0,01101694;0;0;0;1,118356;1,112148;10110,74;11140,15
130;10,73197;-0,008936028;9,47818;0,009478181;0;0;0;1,192442;1,185388;8698,549;9591,202
132;11,39863;-0,009048386;10,03975;0,01003975;0;0;0;1,266514;1,258561;9213,926;10166,9
134;12,06522;-0,008907847;9,495066;0,009495066;0;0;0;1,34058;1,331674;8714,045;9622,355
136;12,73193;-0,008994353;9,12594;0,00912594;0;0;0;1,414659;1,404746;8375,282;9255,041
138;13,39853;-0,008900438;8,644784;0,008644784;0;0;0;1,488725;1,477752;7933,704;8773,481
140;14,0653;-0,008889755;10,01112;0,01001112;0;0;0;1,562811;1,550725;9187,649;10167,57
142;14,73195;-0,008857099;9,401732;0,009401732;0;0;0;1,636883;1,623631;8628,389;9555,627
144;15,3986;-0,008807187;8,396351;0,008396351;0;0;0;1,710956;1,696484;7705,706;8540,009
146;16,06526;-0,008826164;8,263178;0,008263178;0;0;0;1,785029;1,769284;7583,487;8410,678
148;16,73191;-0,008804495;8,897475;0,008897475;0;0;0;1,859101;1,842031;8165,61;9062,888
150;17,39868;-0,008169172;8,067798;0,008067798;0;0;0;1,933187;1,914738;7404,178;8223,764
152;18,06534;-0,008768329;7,799984;0,007799984;0;0;0;2,00726;1,98738;7158,393;7956,55
154;18,73187;-0,008826944;6,171121;0,006171121;0;0;0;2,081319;2,059955;5663,513;6299,562
156;19,39858;-0,008405592;6,17533;0,00617533;0;0;0;2,155398;2,132498;5667,376;6308,433
158;20,06523;-0,008882611;6,472412;0,006472412;0;0;0;2,22947;2,204981;5940,021;6616,713
160;20,73195;-0,008875511;6,60583;0,00660583;0;0;0;2,30355;2,277418;6062,465;6757,999
162;21,3986;-0,008804187;6,702737;0,006702736;0;0;0;2,377622;2,349797;6151,4;6862,102
164;22,06525;-0,00903371;6,476376;0,006476376;0;0;0;2,451694;2,422123;5943,66;6635,157
166;22,73191;-0,009077783;5,844967;0,005844967;0;0;0;2,525767;2,494397;5364,187;5992,597
168;23,39862;-0,00913679;5,986558;0,005986558;0;0;0;2,599846;2,566625;5494,131;6142,2
170;24,06515;-0,009239829;6,352698;0,006352698;0;0;0;2,673906;2,638781;5830,154;6522,563
172;24,7318;-0,009318027;6,49659;0,00649659;0;0;0;2,747978;2,710899;5962,21;6675,115
174;25,39846;-0,009303069;5,652231;0,005652231;0;0;0;2,822051;2,782965;5187,304;5811,739
176;26,06523;-0,009251811;6,113809;0,006113809;0;0;0;2,896137;2,854991;5610,915;6290,873
176,352;26,18259;-0,00825521;6,715462;0,006715462;0;0;0;2,909177;2,867664;6163,079;6910,827